Temperature (K)	Pressure (MPa)	Density (kg/m3)	Volume (m3/kg)	Internal Energy (kJ/mol)	Enthalpy (kJ/mol)	Entropy (J/mol*K)	Cv (J/mol*K)	Cp (J/mol*K)	Sound Spd. (m/s)	Joule-Thomson (K/MPa)	Viscosity (uPa*s)	Therm. Cond. (W/m*K)	aP (1/K)	kT (1/Pa)
295	50	275.93	0.0036241	7.8365	10.744	45.26	30.504	51.862	891.71	-0.093779	34.191	0.099007	0.00310639623377	0.00774901093198
296.65	50	274.52	0.0036427	7.9071	10.829	45.55	30.538	51.855	888.42	-0.089142	33.979	0.0986	0.00310429784121	0.00783681156018
298.3	50	273.12	0.0036614	7.9777	10.915	45.837	30.572	51.848	885.19	-0.084559	33.772	0.098203	0.00310205947959	0.00792467856392
299.95	50	271.73	0.0036802	8.0482	11	46.123	30.607	51.842	882.03	-0.08003	33.568	0.097817	0.00309962280425	0.00801229040355
301.6	50	270.34	0.003699	8.1186	11.086	46.408	30.643	51.835	878.93	-0.075558	33.369	0.097441	0.00309691384568	0.00809977464131
303.25	50	268.96	0.003718	8.1889	11.171	46.69	30.68	51.827	875.89	-0.071143	33.175	0.097074	0.00309378937845	0.00818679438471
304.9	50	267.6	0.003737	8.2592	11.257	46.972	30.718	51.82	872.91	-0.066788	32.984	0.096718	0.00309047887041	0.00827331244519
306.55	50	266.24	0.0037561	8.3293	11.342	47.251	30.757	51.812	869.99	-0.062494	32.797	0.096372	0.00308684758271	0.00835958192354
308.2	50	264.88	0.0037752	8.3994	11.428	47.529	30.797	51.804	867.13	-0.058263	32.614	0.096035	0.00308303802411	0.00844573188749
309.85	50	263.54	0.0037945	8.4695	11.513	47.806	30.838	51.796	864.33	-0.054094	32.435	0.095707	0.00307885019067	0.00853108564918
311.5	50	262.21	0.0038138	8.5394	11.599	48.081	30.88	51.788	861.59	-0.049991	32.259	0.095389	0.00307442164696	0.00861591285634
313.15	50	260.88	0.0038332	8.6093	11.684	48.355	30.923	51.78	858.9	-0.045952	32.088	0.09508	0.00306980442271	0.00870070480677
314.8	50	259.56	0.0038526	8.6792	11.77	48.627	30.967	51.772	856.27	-0.041981	31.919	0.094781	0.00306494262109	0.00878489522055
316.45	50	258.26	0.0038721	8.7489	11.855	48.897	31.012	51.764	853.69	-0.038077	31.755	0.09449	0.00305977099555	0.00886830289983
318.1	50	256.96	0.0038917	8.8186	11.94	49.166	31.057	51.756	851.17	-0.034243	31.593	0.094208	0.00305449359646	0.00895164935359
319.75	50	255.67	0.0039114	8.8883	12.026	49.434	31.104	51.748	848.7	-0.030477	31.435	0.093934	0.00304883994345	0.00903418855163
321.4	50	254.38	0.0039311	8.9578	12.111	49.701	31.151	51.74	846.29	-0.026782	31.281	0.093669	0.00304311726053	0.00911660315201
323.05	50	253.11	0.0039508	9.0273	12.196	49.965	31.199	51.732	843.93	-0.023157	31.129	0.093413	0.00303711716153	0.00919806427567
324.7	50	251.85	0.0039707	9.0968	12.282	50.229	31.248	51.724	841.62	-0.019605	30.981	0.093164	0.00303082114993	0.00927888574618
326.35	50	250.59	0.0039906	9.1662	12.367	50.491	31.298	51.716	839.36	-0.016124	30.836	0.092924	0.00302436527442	0.00935940125354
328	50	249.35	0.0040105	9.2355	12.452	50.752	31.349	51.708	837.15	-0.012716	30.694	0.092692	0.00301762738799	0.009438828878
329.65	50	248.11	0.0040305	9.3048	12.538	51.011	31.401	51.701	834.99	-0.0093809	30.555	0.092468	0.00301079271918	0.00951806457716
331.3	50	246.88	0.0040505	9.374	12.623	51.27	31.453	51.693	832.88	-0.0061193	30.419	0.092252	0.00300375273061	0.00959663299939
332.95	50	245.66	0.0040706	9.4432	12.708	51.526	31.506	51.686	830.82	-0.0029314	30.285	0.092043	0.00299655349772	0.00967456221667
334.6	50	244.45	0.0040908	9.5123	12.794	51.782	31.56	51.679	828.8	0.00018251	30.155	0.091841	0.00298912730003	0.00975186275324
336.25	50	243.25	0.004111	9.5813	12.879	52.036	31.615	51.673	826.83	0.0032223	30.027	0.091648	0.0029815770771	0.00982845355159
337.9	50	242.06	0.0041312	9.6503	12.964	52.289	31.671	51.666	824.91	0.0061879	29.902	0.091461	0.00297369528545	0.00990391484588
339.55	50	240.87	0.0041515	9.7193	13.049	52.541	31.727	51.66	823.03	0.0090792	29.78	0.091282	0.00296587017522	0.00997955897371
341.2	50	239.7	0.0041719	9.7882	13.135	52.791	31.784	51.654	821.2	0.011896	29.66	0.091109	0.00295771783529	0.01005378261816
342.85	50	238.54	0.0041923	9.8571	13.22	53.04	31.842	51.649	819.41	0.014639	29.542	0.090944	0.00294947376304	0.01012739723416
344.5	50	237.38	0.0042127	9.9259	13.305	53.288	31.9	51.644	817.66	0.017308	29.428	0.090785	0.00294121646533	0.01020092510033
346.15	50	236.23	0.0042331	9.9947	13.39	53.535	31.96	51.639	815.95	0.019902	29.315	0.090633	0.00293264201973	0.01027327489798
347.8	50	235.09	0.0042536	10.063	13.476	53.78	32.019	51.635	814.29	0.022423	29.205	0.090488	0.00292414335944	0.0103453230887
349.45	50	233.96	0.0042742	10.132	13.561	54.025	32.08	51.631	812.66	0.024871	29.098	0.09035	0.00291532825143	0.01041637955978
351.1	50	232.84	0.0042948	10.201	13.646	54.268	32.141	51.627	811.08	0.027245	28.993	0.090217	0.00290639905776	0.0104865475129
352.75	50	231.73	0.0043154	10.27	13.731	54.51	32.203	51.624	809.54	0.029546	28.89	0.090091	0.00289737353246	0.01055592834577
354.4	50	230.63	0.004336	10.338	13.816	54.751	32.266	51.622	808.03	0.031776	28.789	0.089972	0.00288828666089	0.01062475507786
356.05	50	229.53	0.0043567	10.407	13.901	54.991	32.329	51.619	806.57	0.033933	28.69	0.089858	0.00287900999919	0.01069285628287
357.7	50	228.45	0.0043774	10.475	13.987	55.229	32.393	51.618	805.14	0.036018	28.594	0.08975	0.00286971072938	0.01076009320692
359.35	50	227.37	0.0043982	10.544	14.072	55.467	32.458	51.617	803.74	0.038033	28.499	0.089649	0.00286027613704	0.01082696360223
361	50	226.3	0.0044189	10.612	14.157	55.703	32.523	51.616	802.39	0.039977	28.407	0.089553	0.0028507557224	0.01089276608499
362.65	50	225.24	0.0044397	10.681	14.242	55.939	32.589	51.616	801.07	0.041851	28.317	0.089463	0.00284113880469	0.01095788800153
364.3	50	224.19	0.0044605	10.749	14.327	56.173	32.656	51.617	799.78	0.043657	28.228	0.089378	0.00283145723817	0.01102230580636
365.95	50	223.14	0.0044814	10.818	14.412	56.406	32.723	51.618	798.53	0.045393	28.142	0.089299	0.00282172258464	0.01108633910697
367.6	50	222.11	0.0045023	10.886	14.498	56.639	32.79	51.619	797.31	0.047062	28.058	0.089226	0.00281187491128	0.0111492495386
369.25	50	221.08	0.0045232	10.955	14.583	56.87	32.859	51.621	796.12	0.048664	27.975	0.089158	0.00280190695292	0.01121154711842
370.9	50	220.07	0.0045441	11.023	14.668	57.1	32.927	51.624	794.97	0.050199	27.894	0.089095	0.00279200831504	0.01127293921468
372.55	50	219.06	0.004565	11.091	14.753	57.329	32.997	51.628	793.85	0.051668	27.815	0.089037	0.00278198867094	0.01133367782414
374.2	50	218.05	0.004586	11.16	14.838	57.557	33.067	51.632	792.76	0.053073	27.738	0.088985	0.00277194991714	0.01139422008156
375.85	50	217.06	0.004607	11.228	14.924	57.784	33.137	51.636	791.7	0.054414	27.662	0.088937	0.00276179486711	0.01145350252225
377.5	50	216.08	0.004628	11.296	15.009	58.011	33.208	51.642	790.67	0.055691	27.588	0.088895	0.00275167270505	0.01151211819934
379.15	50	215.1	0.004649	11.365	15.094	58.236	33.28	51.647	789.67	0.056907	27.516	0.088857	0.00274134297177	0.01156991300314
380.8	50	214.13	0.0046701	11.433	15.179	58.46	33.352	51.654	788.7	0.05806	27.446	0.088825	0.00273113188021	0.01162735353081
382.45	50	213.17	0.0046911	11.501	15.264	58.683	33.424	51.661	787.75	0.059153	27.377	0.088797	0.00272092942291	0.0116842671192
384.1	50	212.22	0.0047122	11.57	15.35	58.906	33.497	51.669	786.84	0.060187	27.309	0.088774	0.00271059327922	0.01173991556521
385.75	50	211.27	0.0047333	11.638	15.435	59.127	33.571	51.678	785.95	0.061161	27.244	0.088755	0.0027002853523	0.0117954292681
387.4	50	210.33	0.0047544	11.707	15.52	59.348	33.645	51.687	785.09	0.062078	27.179	0.088741	0.00268992102752	0.01185006356679
389.05	50	209.4	0.0047755	11.775	15.605	59.568	33.719	51.697	784.26	0.062937	27.116	0.088731	0.00267960015879	0.01190402547954
390.7	50	208.48	0.0047966	11.843	15.691	59.787	33.794	51.707	783.45	0.063741	27.055	0.088726	0.00266914157399	0.01195701497568
392.35	50	207.57	0.0048177	11.912	15.776	60.004	33.87	51.719	782.67	0.06449	26.995	0.088725	0.00265871164903	0.01200916915596
394	50	206.66	0.0048388	11.98	15.861	60.222	33.945	51.731	781.91	0.065184	26.936	0.088729	0.00264843467271	0.01206160497034
395.65	50	205.76	0.00486	12.048	15.947	60.438	34.022	51.743	781.18	0.065825	26.879	0.088736	0.00263784456714	0.01211235474433
397.3	50	204.87	0.0048812	12.117	16.032	60.653	34.098	51.757	780.47	0.066414	26.823	0.088748	0.00262754210122	0.0121632432769
398.95	50	203.99	0.0049023	12.185	16.118	60.868	34.176	51.771	779.78	0.066952	26.769	0.088764	0.00261701436367	0.01221271607649
400.6	50	203.11	0.0049235	12.254	16.203	61.081	34.253	51.786	779.12	0.067439	26.716	0.088784	0.00260667604323	0.01226235092444
402.25	50	202.24	0.0049447	12.322	16.289	61.294	34.331	51.801	778.48	0.067877	26.664	0.088808	0.00259619809454	0.01231089746588
403.9	50	201.38	0.0049659	12.391	16.374	61.506	34.409	51.817	777.86	0.068267	26.613	0.088836	0.00258579174425	0.01235893360438
405.55	50	200.52	0.004987	12.459	16.46	61.718	34.488	51.834	777.26	0.068609	26.563	0.088867	0.0025754344017	0.01240670289054
407.2	50	199.67	0.0050082	12.528	16.545	61.928	34.567	51.852	776.69	0.068905	26.515	0.088903	0.00256508807458	0.01245361907527
408.85	50	198.83	0.0050294	12.596	16.631	62.138	34.647	51.87	776.13	0.069155	26.468	0.088942	0.00255463411486	0.01249970484198
410.5	50	197.99	0.0050506	12.665	16.716	62.347	34.727	51.889	775.6	0.069361	26.422	0.088985	0.00254428048672	0.01254553474586
412.15	50	197.17	0.0050718	12.734	16.802	62.555	34.807	51.909	775.09	0.069523	26.377	0.089031	0.00253393073553	0.01259015176569
413.8	50	196.35	0.005093	12.802	16.888	62.762	34.888	51.929	774.59	0.069642	26.333	0.089082	0.00252353642973	0.01263453341454
415.45	50	195.53	0.0051143	12.871	16.973	62.969	34.969	51.95	774.12	0.06972	26.291	0.089135	0.00251321618707	0.01267863101117
417.1	50	194.72	0.0051355	12.94	17.059	63.175	35.05	51.972	773.66	0.069757	26.249	0.089192	0.00250301920003	0.01272244434655
418.75	50	193.92	0.0051567	13.008	17.145	63.38	35.131	51.995	773.22	0.069754	26.209	0.089253	0.00249288719104	0.01276563168982
420.4	50	193.13	0.0051779	13.077	17.231	63.585	35.213	52.018	772.81	0.069712	26.169	0.089317	0.00248258027963	0.01280723613248
422.05	50	192.34	0.0051991	13.146	17.316	63.789	35.296	52.042	772.4	0.069631	26.131	0.089385	0.00247235708216	0.01284914842045
423.7	50	191.56	0.0052203	13.215	17.402	63.992	35.378	52.066	772.02	0.069514	26.093	0.089455	0.00246217661849	0.01289018069597
425.35	50	190.78	0.0052415	13.284	17.488	64.194	35.461	52.092	771.65	0.069361	26.057	0.089529	0.00245214377053	0.01293142805279
427	50	190.02	0.0052627	13.353	17.574	64.396	35.544	52.118	771.31	0.069172	26.022	0.089606	0.00244197965897	0.01297072356177
428.65	50	189.25	0.0052839	13.422	17.66	64.597	35.628	52.144	770.97	0.068948	25.987	0.089687	0.00243186393528	0.01301074164356
430.3	50	188.5	0.0053051	13.491	17.746	64.797	35.712	52.172	770.66	0.068691	25.953	0.08977	0.00242181036422	0.01304927314703
431.95	50	187.75	0.0053263	13.56	17.832	64.997	35.796	52.2	770.36	0.068402	25.921	0.089857	0.00241181588365	0.01308785904166
433.6	50	187	0.0053475	13.629	17.919	65.196	35.88	52.228	770.07	0.06808	25.889	0.089946	0.00240187980794	0.01312650006789
435.25	50	186.26	0.0053687	13.698	18.005	65.395	35.965	52.258	769.8	0.067727	25.858	0.090039	0.0023919921053	0.0131642859637
436.9	50	185.53	0.0053899	13.768	18.091	65.592	36.05	52.288	769.55	0.067343	25.828	0.090134	0.00238206646829	0.01320106385687
438.55	50	184.81	0.0054111	13.837	18.177	65.789	36.135	52.318	769.31	0.066931	25.799	0.090233	0.00237213347837	0.01323716102749
440.2	50	184.09	0.0054322	13.906	18.264	65.986	36.22	52.35	769.08	0.066489	25.77	0.090334	0.00236247004169	0.01327379197173
441.85	50	183.37	0.0054534	13.976	18.35	66.182	36.306	52.382	768.87	0.06602	25.743	0.090438	0.0023527034417	0.0133097395255
443.5	50	182.66	0.0054746	14.045	18.436	66.377	36.391	52.414	768.67	0.065523	25.716	0.090545	0.00234303310157	0.01334535091656
445.15	50	181.96	0.0054957	14.115	18.523	66.572	36.478	52.447	768.49	0.065	25.69	0.090655	0.00233322871067	0.01337941925657
446.8	50	181.26	0.0055169	14.184	18.61	66.766	36.564	52.481	768.32	0.064451	25.665	0.090768	0.00232365721722	0.01341411882331
448.45	50	180.57	0.0055381	14.254	18.696	66.96	36.65	52.516	768.16	0.063878	25.64	0.090883	0.0023141695469	0.01344834015514
450.1	50	179.88	0.0055592	14.324	18.783	67.152	36.737	52.551	768.01	0.06328	25.617	0.091001	0.00230465044037	0.0134821969718
451.75	50	179.2	0.0055803	14.393	18.87	67.345	36.824	52.587	767.88	0.062659	25.594	0.091121	0.00229518374207	0.01351520744592
453.4	50	178.52	0.0056015	14.463	18.956	67.537	36.911	52.623	767.76	0.062015	25.572	0.091244	0.00228574774352	0.01354821095128
455.05	50	177.85	0.0056226	14.533	19.043	67.728	36.999	52.66	767.65	0.061349	25.55	0.09137	0.00227630972599	0.01358033522681
456.7	50	177.19	0.0056437	14.603	19.13	67.918	37.086	52.697	767.56	0.060661	25.529	0.091498	0.00226693164063	0.0136116891131
458.35	50	176.53	0.0056648	14.673	19.217	68.109	37.174	52.735	767.47	0.059953	25.509	0.091629	0.00225762351207	0.01364326511073
460	50	175.87	0.0056859	14.743	19.304	68.298	37.262	52.774	767.4	0.059224	25.49	0.091762	0.00224842880222	0.01367472174195
461.65	50	175.22	0.005707	14.814	19.391	68.487	37.35	52.813	767.34	0.058476	25.471	0.091898	0.00223921852981	0.01370537365213
463.3	50	174.58	0.0057281	14.884	19.478	68.676	37.438	52.853	767.29	0.057709	25.453	0.092036	0.00223008571248	0.01373546725991
464.95	50	173.94	0.0057491	14.954	19.566	68.864	37.527	52.894	767.25	0.056924	25.435	0.092177	0.00222101073411	0.01376541483065
466.6	50	173.3	0.0057702	15.025	19.653	69.051	37.615	52.935	767.22	0.056122	25.418	0.092319	0.00221206471529	0.01379569097073
468.25	50	172.67	0.0057913	15.095	19.74	69.238	37.704	52.976	767.2	0.055302	25.402	0.092464	0.00220299940774	0.01382476186862
469.9	50	172.05	0.0058123	15.166	19.828	69.424	37.793	53.018	767.19	0.054466	25.387	0.092612	0.00219402791727	0.01385324227895
471.55	50	171.43	0.0058333	15.236	19.915	69.61	37.882	53.061	767.19	0.053613	25.371	0.092762	0.00218519393608	0.01388192964272
473.2	50	170.81	0.0058544	15.307	20.003	69.796	37.972	53.104	767.2	0.052746	25.357	0.092913	0.00217628495958	0.01391019703906
474.85	50	170.2	0.0058754	15.378	20.091	69.981	38.061	53.148	767.22	0.051864	25.343	0.093068	0.00216756781816	0.01393822095517
476.5	50	169.6	0.0058964	15.449	20.178	70.165	38.15	53.192	767.25	0.050967	25.33	0.093224	0.00215883005748	0.01396536000225
478.15	50	168.99	0.0059174	15.52	20.266	70.349	38.24	53.237	767.29	0.050056	25.317	0.093382	0.00215019067288	0.01399315382829
479.8	50	168.4	0.0059384	15.591	20.354	70.533	38.33	53.282	767.33	0.049133	25.305	0.093543	0.00214149440448	0.01401958815584
481.45	50	167.8	0.0059594	15.662	20.442	70.716	38.42	53.328	767.39	0.048196	25.293	0.093706	0.00213296731151	0.01404668062909
483.1	50	167.21	0.0059803	15.733	20.53	70.898	38.51	53.374	767.46	0.047248	25.282	0.09387	0.00212443577004	0.01407286388607
484.75	50	166.63	0.0060013	15.804	20.618	71.08	38.6	53.421	767.53	0.046287	25.271	0.094037	0.00211598259584	0.01409875603074
486.4	50	166.05	0.0060222	15.876	20.706	71.262	38.69	53.468	767.61	0.045315	25.261	0.094206	0.00210758703919	0.01412456501537
488.05	50	165.48	0.0060432	15.947	20.795	71.443	38.781	53.516	767.7	0.044332	25.252	0.094377	0.00209914273052	0.01414933561986
489.7	50	164.91	0.0060641	16.019	20.883	71.624	38.871	53.564	767.8	0.043339	25.243	0.09455	0.00209085332529	0.0141743802964
491.35	50	164.34	0.006085	16.09	20.971	71.804	38.962	53.612	767.91	0.042336	25.234	0.094725	0.0020825046379	0.01419896988036
493	50	163.78	0.0061059	16.162	21.06	71.984	39.053	53.661	768.02	0.041323	25.226	0.094901	0.00207424862734	0.01422323659199
494.65	50	163.22	0.0061268	16.234	21.148	72.163	39.144	53.711	768.14	0.040301	25.218	0.09508	0.00206612060522	0.01424767171247
496.3	50	162.66	0.0061477	16.306	21.237	72.342	39.234	53.761	768.27	0.03927	25.211	0.09526	0.00205812681681	0.01427237450315
497.95	50	162.11	0.0061686	16.378	21.326	72.521	39.325	53.811	768.41	0.038231	25.204	0.095443	0.00205000933918	0.0142957356765
499.6	50	161.57	0.0061894	16.45	21.415	72.699	39.417	53.862	768.55	0.037184	25.198	0.095627	0.00204190139157	0.01431838149411
501.25	50	161.02	0.0062103	16.522	21.504	72.876	39.508	53.914	768.7	0.036129	25.192	0.095813	0.00203406207367	0.0143424361369
502.9	50	160.49	0.0062311	16.594	21.593	73.054	39.599	53.965	768.86	0.035067	25.187	0.096001	0.00202605856862	0.01436433255171
504.55	50	159.95	0.0062519	16.667	21.682	73.23	39.69	54.018	769.02	0.033998	25.182	0.096191	0.00201835767813	0.01438791580652
506.2	50	159.42	0.0062727	16.739	21.771	73.407	39.782	54.07	769.19	0.032922	25.177	0.096382	0.00201044295841	0.0144098577225
507.85	50	158.89	0.0062935	16.812	21.86	73.583	39.873	54.123	769.37	0.03184	25.173	0.096575	0.00200274680149	0.01443231129417
509.5	50	158.37	0.0063143	16.884	21.949	73.759	39.965	54.177	769.55	0.030753	25.169	0.09677	0.001995040349	0.01445401608428
511.15	50	157.85	0.0063351	16.957	22.039	73.934	40.056	54.23	769.74	0.029659	25.166	0.096967	0.00198737341582	0.01447569182498
512.8	50	157.33	0.0063559	17.03	22.128	74.109	40.148	54.285	769.94	0.028561	25.163	0.097165	0.00197982096873	0.01449741658439
514.45	50	156.82	0.0063766	17.103	22.218	74.283	40.24	54.339	770.14	0.027457	25.16	0.097365	0.0019721908022	0.01451820281299
516.1	50	156.31	0.0063974	17.176	22.308	74.457	40.332	54.394	770.35	0.026349	25.158	0.097567	0.00196466510902	0.01453912604153
517.75	50	155.81	0.0064181	17.249	22.397	74.631	40.423	54.449	770.56	0.025237	25.157	0.09777	0.00195724277998	0.01455972314862
519.4	50	155.31	0.0064388	17.323	22.487	74.804	40.515	54.505	770.78	0.02412	25.155	0.097975	0.00194984476905	0.01458009006357
521.05	50	154.81	0.0064595	17.396	22.577	74.977	40.607	54.561	771.01	0.023	25.154	0.098181	0.00194247714296	0.01460032030792
522.7	50	154.32	0.0064802	17.469	22.667	75.15	40.699	54.618	771.24	0.021876	25.153	0.098389	0.0019351892995	0.01462011363167
524.35	50	153.82	0.0065009	17.543	22.758	75.322	40.791	54.674	771.47	0.020749	25.153	0.098599	0.00192793151453	0.01464082684554
526	50	153.34	0.0065216	17.617	22.848	75.494	40.883	54.731	771.72	0.019619	25.153	0.09881	0.00192063979	0.01465938180479
527.65	50	152.85	0.0065423	17.69	22.938	75.665	40.976	54.789	771.96	0.018486	25.153	0.099022	0.00191348345744	0.01467941588594
529.3	50	152.37	0.0065629	17.764	23.029	75.837	41.068	54.847	772.21	0.017351	25.154	0.099237	0.00190640002091	0.01469870297816
530.95	50	151.89	0.0065835	17.838	23.119	76.007	41.16	54.905	772.47	0.016213	25.155	0.099452	0.00189934434865	0.0147178408955
532.6	50	151.42	0.0066042	17.912	23.21	76.178	41.252	54.963	772.73	0.015073	25.156	0.099669	0.00189226392252	0.01473623816089
534.25	50	150.95	0.0066248	17.987	23.301	76.348	41.344	55.022	773	0.013932	25.158	0.099888	0.00188531122635	0.01475474728321
535.9	50	150.48	0.0066454	18.061	23.391	76.518	41.437	55.081	773.27	0.012788	25.16	0.10011	0.00187831805646	0.0147731261182
537.55	50	150.02	0.006666	18.135	23.482	76.687	41.529	55.14	773.55	0.011644	25.162	0.10033	0.00187138058604	0.01479072103856
539.2	50	149.55	0.0066866	18.21	23.573	76.856	41.621	55.2	773.83	0.010498	25.165	0.10055	0.00186464134747	0.01480979424375
540.85	50	149.1	0.0067071	18.284	23.665	77.025	41.713	55.26	774.11	0.009351	25.168	0.10078	0.00185784082991	0.01482710817975
542.5	50	148.64	0.0067277	18.359	23.756	77.193	41.806	55.32	774.4	0.0082033	25.171	0.101	0.00185102327573	0.01484489636203
544.15	50	148.19	0.0067482	18.434	23.847	77.361	41.898	55.381	774.69	0.007055	25.174	0.10123	0.00184438187932	0.0148625285897
545.8	50	147.74	0.0067687	18.509	23.939	77.529	41.991	55.442	774.99	0.0059063	25.178	0.10146	0.00183767452442	0.01487963846522
547.45	50	147.29	0.0067893	18.584	24.03	77.697	42.083	55.503	775.29	0.0047573	25.182	0.10169	0.00183109178886	0.01489731973643
549.1	50	146.85	0.0068098	18.659	24.122	77.864	42.175	55.565	775.6	0.0036082	25.186	0.10192	0.00182456879677	0.0149140871226
550.75	50	146.41	0.0068303	18.735	24.213	78.031	42.268	55.626	775.91	0.0024591	25.191	0.10215	0.0018179186347	0.01493044299927
552.4	50	145.97	0.0068507	18.81	24.305	78.197	42.36	55.688	776.22	0.0013103	25.196	0.10238	0.00181150235014	0.01494763223885
554.05	50	145.53	0.0068712	18.885	24.397	78.363	42.453	55.75	776.54	0.00016186	25.201	0.10262	0.00180500630936	0.01496429613021
555.7	50	145.1	0.0068917	18.961	24.489	78.529	42.545	55.813	776.86	-0.00098604	25.207	0.10285	0.00179866722532	0.01498076203584
557.35	50	144.67	0.0069121	19.037	24.581	78.695	42.637	55.876	777.19	-0.0021332	25.212	0.10309	0.00179236307946	0.01499704794132
559	50	144.25	0.0069326	19.113	24.674	78.86	42.73	55.939	777.52	-0.0032796	25.218	0.10333	0.0017859402903	0.01501214828262
560.65	50	143.82	0.006953	19.189	24.766	79.025	42.822	56.002	777.85	-0.004425	25.224	0.10357	0.00177972537033	0.01502884459223
562.3	50	143.4	0.0069734	19.265	24.858	79.19	42.914	56.065	778.18	-0.0055693	25.231	0.10381	0.0017734924755	0.01504470057463
563.95	50	142.98	0.0069938	19.341	24.951	79.354	43.007	56.129	778.52	-0.0067124	25.237	0.10405	0.00176727562253	0.01506028932579
565.6	50	142.57	0.0070142	19.417	25.044	79.518	43.099	56.193	778.87	-0.0078541	25.244	0.1043	0.00176110550338	0.01507498618389
567.25	50	142.16	0.0070346	19.494	25.136	79.682	43.192	56.257	779.21	-0.0089943	25.251	0.10454	0.00175491332176	0.01508991539585
568.9	50	141.75	0.0070549	19.57	25.229	79.845	43.284	56.322	779.56	-0.010133	25.259	0.10479	0.00174892371626	0.01510527090253
570.55	50	141.34	0.0070753	19.647	25.322	80.009	43.376	56.386	779.92	-0.01127	25.266	0.10503	0.00174285868055	0.01512016689963
572.2	50	140.93	0.0070956	19.724	25.415	80.172	43.469	56.451	780.27	-0.012405	25.274	0.10528	0.00173686550661	0.01513556785875
573.85	50	140.53	0.0071159	19.801	25.509	80.334	43.561	56.516	780.63	-0.013538	25.282	0.10553	0.00173091659679	0.01515004958865
575.5	50	140.13	0.0071363	19.878	25.602	80.497	43.653	56.582	780.99	-0.014669	25.291	0.10578	0.00172507839918	0.01516499008641
577.15	50	139.73	0.0071566	19.955	25.695	80.659	43.745	56.647	781.36	-0.015798	25.299	0.10603	0.00171918873546	0.01517946570937
578.8	50	139.34	0.0071769	20.032	25.789	80.82	43.838	56.713	781.72	-0.016925	25.308	0.10629	0.00171329538699	0.01519335326791
580.45	50	138.94	0.0071971	20.109	25.882	80.982	43.93	56.779	782.1	-0.018049	25.317	0.10654	0.00170755751447	0.01520808985441
582.1	50	138.55	0.0072174	20.187	25.976	81.143	44.022	56.845	782.47	-0.019171	25.326	0.10679	0.00170180753135	0.01522231062895
583.75	50	138.17	0.0072377	20.264	26.07	81.304	44.114	56.911	782.85	-0.02029	25.335	0.10705	0.00169601356307	0.0152352262658
585.4	50	137.78	0.0072579	20.342	26.164	81.465	44.206	56.978	783.22	-0.021407	25.345	0.10731	0.00169043413907	0.01525008496357
587.05	50	137.4	0.0072782	20.42	26.258	81.625	44.298	57.044	783.61	-0.022521	25.355	0.10756	0.00168469592669	0.01526297456561
588.7	50	137.02	0.0072984	20.498	26.352	81.786	44.39	57.111	783.99	-0.023633	25.364	0.10782	0.00167910981389	0.01527670210751
590.35	50	136.64	0.0073186	20.576	26.447	81.946	44.482	57.178	784.38	-0.024741	25.375	0.10808	0.00167353991074	0.01529022154482
592	50	136.26	0.0073388	20.654	26.541	82.105	44.574	57.245	784.77	-0.025847	25.385	0.10834	0.00166800740376	0.01530392332714
593.65	50	135.89	0.007359	20.732	26.635	82.265	44.666	57.313	785.16	-0.02695	25.395	0.10861	0.0016625310445	0.01531694838598
595.3	50	135.52	0.0073792	20.811	26.73	82.424	44.758	57.38	785.55	-0.028049	25.406	0.10887	0.00165701114692	0.01532988203966
596.95	50	135.15	0.0073993	20.889	26.825	82.583	44.85	57.448	785.95	-0.029146	25.417	0.10913	0.00165159786622	0.01534286909739
598.6	50	134.78	0.0074195	20.968	26.92	82.741	44.942	57.516	786.35	-0.030239	25.428	0.1094	0.00164620945716	0.01535603330462
600.25	50	134.41	0.0074397	21.047	27.015	82.9	45.034	57.584	786.75	-0.031329	25.439	0.10966	0.00164085685263	0.01536937550996
601.9	50	134.05	0.0074598	21.126	27.11	83.058	45.126	57.652	787.15	-0.032416	25.451	0.10993	0.00163548971729	0.01538174902713
603.55	50	133.69	0.0074799	21.205	27.205	83.216	45.217	57.72	787.56	-0.033499	25.462	0.1102	0.00163022026254	0.01539424356387
605.2	50	133.33	0.0075	21.284	27.3	83.374	45.309	57.789	787.97	-0.034579	25.474	0.11047	0.00162498159797	0.01540683590062
606.85	50	132.98	0.0075201	21.363	27.396	83.531	45.401	57.857	788.38	-0.035655	25.486	0.11073	0.00161963746664	0.01541817486215
608.5	50	132.62	0.0075402	21.443	27.491	83.688	45.492	57.926	788.79	-0.036728	25.498	0.111	0.00161455027062	0.01543144849342
610.15	50	132.27	0.0075603	21.522	27.587	83.845	45.584	57.995	789.21	-0.037798	25.51	0.11128	0.00160933289	0.01544299775445
611.8	50	131.92	0.0075804	21.602	27.682	84.002	45.675	58.064	789.62	-0.038863	25.523	0.11155	0.00160425197393	0.01545544352096
613.45	50	131.57	0.0076004	21.682	27.778	84.158	45.767	58.133	790.04	-0.039926	25.535	0.11182	0.00159911227074	0.01546732655476
615.1	50	131.23	0.0076205	21.762	27.874	84.315	45.858	58.202	790.46	-0.040984	25.548	0.1121	0.00159401650394	0.01547853572052
616.75	50	130.88	0.0076405	21.842	27.97	84.471	45.949	58.272	790.88	-0.042039	25.561	0.11237	0.00158910270264	0.01549135432375
618.4	50	130.54	0.0076605	21.922	28.067	84.626	46.041	58.341	791.31	-0.04309	25.574	0.11265	0.00158398066692	0.01550215962918
620.05	50	130.2	0.0076806	22.002	28.163	84.782	46.132	58.411	791.73	-0.044137	25.587	0.11292	0.00157906014696	0.01551412088245
621.7	50	129.86	0.0077006	22.082	28.259	84.937	46.223	58.481	792.16	-0.04518	25.6	0.1132	0.00157416166574	0.01552585210171
623.35	50	129.52	0.0077206	22.163	28.356	85.092	46.314	58.55	792.59	-0.046219	25.614	0.11348	0.00156921713244	0.0155374804483
625	50	129.19	0.0077405	22.244	28.453	85.247	46.405	58.62	793.02	-0.047255	25.627	0.11376	0.00156433105146	0.01554833388482
